BEGIN IONS
TITLE=test spectrum 1
PEPMASS=1129.321899414063 1003605.5
CHARGE=4+
RTINSECONDS=4723.486317792
315.3289489746094 1345.6302490234375
366.3664245605469 1425.0098876953125
372.22283935546875 4460.333984375
373.2268981933594 1676.516845703125
406.0047912597656 1429.2864990234375
413.2356262207031 2021.9217529296875
439.5806884765625 1561.940673828125
443.25885009765625 2187.889892578125
451.2662048339844 6574.423828125
508.28704833984375 34808.02734375
509.2904052734375 12135.7958984375
510.281005859375 3006.355712890625
510.7790222167969 2641.268798828125
526.2634887695312 3898.11474609375
527.2666015625 1657.9779052734375
571.3776245117188 1972.4923095703125
611.3496704101562 46404.90234375
612.3527221679688 15703.876953125
613.3511352539062 2620.65234375
619.318359375 3051.444091796875
637.328857421875 52246.6328125
638.33154296875 18712.84765625
639.3338012695312 3609.31201171875
640.3187255859375 2593.410888671875
658.3225708007812 3937.984375
692.3441162109375 3662.32275390625
711.350341796875 2186.91650390625
729.360107421875 9102.5126953125
730.360595703125 3066.550537109375
736.397705078125 12651.146484375
737.4026489257812 6713.92041015625
739.3985595703125 2387.673583984375
742.3895874023438 3933.37158203125
753.3585815429688 2013.0703125
771.3685302734375 3280.7431640625
782.3809814453125 2081.608642578125
793.41748046875 57587.4921875
794.4222412109375 30847.4765625
795.4223022460938 7396.37890625
798.42431640625 1656.17919921875
800.397216796875 12903.5458984375
801.3987426757812 5446.150390625
802.4005737304688 2003.18212890625
807.4266967773438 2354.205078125
807.9276123046875 2055.234619140625
808.4323120117188 1935.5693359375
823.4195556640625 1846.6754150390625
823.9178466796875 3143.66357421875
824.4202880859375 2575.839111328125
824.923828125 1574.18603515625
836.447021484375 2970.531982421875
839.409912109375 2251.74951171875
856.4312744140625 8940.138671875
861.9940795898438 5375.90771484375
877.9728393554688 1851.9365234375
881.4505004882812 5155.25146484375
881.9383544921875 2654.2314453125
882.4489135742188 6493.24462890625
882.943359375 2551.417236328125
890.4378051757812 3719.2607421875
891.4345092773438 2129.822509765625
898.428955078125 3305.0771484375
899.464599609375 28213.849609375
900.4682006835938 12524.9912109375
901.4598388671875 5539.43408203125
908.4456787109375 58838.51171875
909.3468017578125 2342.33349609375
909.4473876953125 33977.21484375
910.4480590820312 10448.6484375
911.4541625976562 2568.515869140625
938.9915771484375 2116.29052734375
954.471923828125 2099.595458984375
955.4667358398438 2873.69775390625
961.4893188476562 1509.577880859375
969.4910888671875 2146.55859375
979.4818725585938 50388.8828125
980.4850463867188 30446.90625
981.4854125976562 8617.794921875
982.473388671875 4191.708984375
984.4988403320312 1858.9801025390625
992.52392578125 2238.600830078125
993.0159301757812 5084.26318359375
1000.4767456054688 2412.352294921875
1009.52001953125 1938.401123046875
1012.5045166015625 2159.77294921875
1014.1560668945312 2990.123046875
1019.5489501953125 24582.16015625
1019.6585693359375 2727.712646484375
1020.5548706054688 12713.5400390625
1021.5521850585938 5643.8994140625
1022.5076904296875 5207.34619140625
1023.7957153320312 1626.91162109375
1028.5064697265625 22634.4765625
1029.5106201171875 12990.009765625
1030.5086669921875 5261.091796875
1031.184814453125 1986.9962158203125
1031.5216064453125 2897.820556640625
1031.8504638671875 3018.58642578125
1032.179931640625 2348.509765625
1033.1661376953125 4441.4091796875
1040.5167236328125 10859.58203125
1043.8365478515625 1819.02392578125
1044.5433349609375 3293.677734375
1044.872314453125 5106.06103515625
1045.2049560546875 2275.344970703125
1049.5487060546875 3314.41748046875
1050.563720703125 1820.086181640625
1051.5230712890625 13428.845703125
1052.520751953125 8751.3662109375
1053.5233154296875 3992.460693359375
1055.5223388671875 1581.6329345703125
1057.177001953125 2110.68115234375
1059.5311279296875 2670.501708984375
1061.0155029296875 2469.018798828125
1061.5377197265625 3122.372314453125
1063.5419921875 2017.188232421875
1064.870849609375 5678.767578125
1065.1982421875 3564.775146484375
1065.528564453125 2062.919189453125
1065.873779296875 3090.74755859375
1068.5682373046875 1825.993896484375
1069.5394287109375 4832.181640625
1070.535888671875 2564.04248046875
1071.0570068359375 5305.201171875
1072.5302734375 2079.5009765625
1074.5506591796875 1882.1202392578125
1077.296630859375 2522.798828125
1077.9378662109375 2177.926025390625
1079.552978515625 3258.671875
1080.044189453125 2250.77392578125
1080.54833984375 3695.57568359375
1081.04931640625 2520.8515625
1081.529541015625 8648.4189453125
1082.20751953125 2268.466064453125
1082.5498046875 7931.67236328125
1083.544189453125 3877.135009765625
1084.5032958984375 1877.283203125
1086.5477294921875 2019.6805419921875
1088.05712890625 120842.8046875
1088.558837890625 163193.546875
1089.0599365234375 103349.0
1089.5604248046875 60102.28125
1090.0626220703125 24241.82421875
1090.5604248046875 5333.435546875
1091.8824462890625 2472.673583984375
1092.1114501953125 2163.880859375
1092.227294921875 3557.4931640625
1092.5609130859375 29486.65234375
1092.88720703125 5066.994140625
1093.5667724609375 17598.078125
1094.5711669921875 6491.14697265625
1095.53515625 3140.92138671875
1095.7962646484375 6230.75244140625
1096.0419921875 8165.4248046875
1097.544189453125 2467.50390625
1097.890625 2176.2470703125
1098.2232666015625 4352.453125
1098.5577392578125 4201.48876953125
1098.9049072265625 2518.264404296875
1099.0670166015625 1649.403564453125
1099.207763671875 2544.8369140625
1099.550537109375 4717.7255859375
1100.3011474609375 111997.734375
1100.5369873046875 15741.3564453125
1100.7940673828125 2650.65966796875
1102.18505859375 2488.61083984375
1102.3828125 2717.467041015625
1102.5650634765625 2335.64404296875
1103.7965087890625 9984.400390625
1104.042724609375 91442.515625
1104.545166015625 117698.4375
1105.044677734375 91699.6171875
1105.1834716796875 2779.362060546875
1105.4111328125 3275.591552734375
1105.5465087890625 45551.359375
1105.676025390625 2176.67822265625
1106.0526123046875 18263.896484375
1106.1790771484375 2438.86767578125
1106.5469970703125 6354.5537109375
1107.0577392578125 3661.19775390625
1107.5360107421875 1596.8475341796875
1108.2947998046875 133896.375
1108.5244140625 17588.513671875
1108.7864990234375 2871.4345703125
1109.552490234375 4995.81591796875
1112.172607421875 1759.2105712890625
1112.3770751953125 3105.77392578125
1112.585693359375 2398.56201171875
1112.7899169921875 2124.0107421875
1113.56640625 2898.534912109375
1113.8948974609375 11051.5419921875
1114.2408447265625 7589.6923828125
1114.561767578125 6411.9169921875
1114.908447265625 2710.46484375
1115.2291259765625 2351.578369140625
1119.57470703125 8994.4970703125
1119.9053955078125 4406.43701171875
1120.2314453125 11242.8046875
1120.5679931640625 2845.08935546875
1151.5789794921875 3665.926513671875
1152.07177734375 2087.6630859375
1152.568603515625 2270.08251953125
1156.565185546875 24684.296875
1157.56494140625 17292.109375
1158.5731201171875 6356.9541015625
1160.5738525390625 8873.6904296875
1161.0787353515625 20095.115234375
1161.577392578125 13095.43359375
1162.0753173828125 7355.82763671875
1162.570556640625 6774.77783203125
1172.931640625 3099.301513671875
1173.5987548828125 2908.786376953125
1175.5836181640625 5252.24365234375
1178.605224609375 4806.017578125
1178.931396484375 6558.77197265625
1179.2623291015625 7239.078125
1179.5955810546875 9659.53515625
1179.927734375 2767.18701171875
1180.2689208984375 2357.779296875
1180.5740966796875 5293.1103515625
1181.59619140625 8564.400390625
1189.5931396484375 3583.1005859375
1190.050537109375 2167.919189453125
1192.24609375 5995.5078125
1192.5875244140625 2388.28369140625
1195.59326171875 2244.14306640625
1196.6072998046875 5813.1552734375
1196.9403076171875 4047.572998046875
1197.2747802734375 2752.812744140625
1197.607666015625 4344.5146484375
1197.9459228515625 2375.4365234375
1198.2552490234375 2957.896240234375
1199.596923828125 2120.8681640625
1199.932861328125 2044.56201171875
1200.2681884765625 2293.64599609375
1202.2799072265625 5410.9169921875
1202.613525390625 14142.095703125
1202.946044921875 14183.9931640625
1203.2838134765625 8736.876953125
1203.6065673828125 18660.193359375
1203.945556640625 1962.359619140625
1204.5987548828125 4654.1689453125
1205.270263671875 4488.94287109375
1205.6055908203125 15537.1875
1205.9407958984375 19159.220703125
1206.2796630859375 9416.4365234375
1206.60107421875 8244.0380859375
1206.93994140625 3009.8427734375
1207.5899658203125 6068.3203125
1212.5955810546875 3247.488037109375
1219.6060791015625 4322.8837890625
1221.6087646484375 38085.15625
1221.9317626953125 15201.5830078125
1222.6131591796875 31852.333984375
1223.606689453125 12727.7626953125
1224.620849609375 3998.11328125
1225.62939453125 4744.3291015625
1226.1328125 2250.07568359375
1228.5875244140625 4271.470703125
1230.2637939453125 2457.473876953125
1232.613525390625 3526.27734375
1232.9517822265625 3288.735107421875
1233.62158203125 2122.322265625
1234.1240234375 1741.1873779296875
1236.2904052734375 5341.1728515625
1236.6236572265625 1713.326171875
1238.2928466796875 3355.898193359375
1238.630859375 8318.947265625
1238.9620361328125 12143.2734375
1239.2962646484375 13259.701171875
1239.6246337890625 9006.0732421875
1239.9666748046875 3440.117431640625
1240.6220703125 13220.62109375
1240.9537353515625 42628.3359375
1241.2872314453125 48114.1484375
1241.6204833984375 42620.9609375
1241.95361328125 27415.791015625
1242.2901611328125 18340.3046875
1242.615966796875 7255.9912109375
1243.797119140625 1933.3006591796875
1246.9393310546875 2568.45703125
1247.63916015625 2113.3984375
1253.9534912109375 4213.64697265625
1254.9608154296875 1953.904052734375
1256.30419921875 1867.020751953125
1259.6292724609375 3513.8701171875
1259.95556640625 11725.0048828125
1260.291015625 9911.2998046875
1260.6280517578125 9267.9736328125
1260.961181640625 4277.7568359375
1261.2913818359375 3747.28759765625
1261.9677734375 4066.782470703125
1262.309814453125 8657.27734375
1262.646240234375 10323.77734375
1262.9708251953125 13121.578125
1263.3077392578125 5620.3369140625
1263.646728515625 7030.7822265625
1263.969482421875 2692.515869140625
1268.09716796875 3728.291259765625
1273.6646728515625 2103.322265625
1276.64208984375 11640.57421875
1277.6456298828125 7497.9052734375
1278.65087890625 4039.325927734375
1280.3360595703125 1875.6385498046875
1280.640869140625 2825.58642578125
1281.0076904296875 1870.775146484375
1281.6552734375 2394.5322265625
1283.143310546875 4329.322265625
1283.6468505859375 3517.3564453125
1283.974365234375 3275.4208984375
1284.3094482421875 2406.25
1285.6533203125 6729.310546875
1285.9886474609375 8824.087890625
1286.323486328125 6532.25830078125
1286.6561279296875 8573.1298828125
1286.9791259765625 14133.94140625
1287.3211669921875 9288.4951171875
1287.6484375 8738.0654296875
1287.98193359375 4374.40234375
1288.3155517578125 3705.7431640625
1291.6754150390625 2083.781494140625
1292.6534423828125 9652.13671875
1292.9827880859375 30424.37109375
1293.316162109375 35064.421875
1293.6524658203125 37435.24609375
1293.9854736328125 26233.546875
1294.3233642578125 10942.123046875
1294.654296875 5857.2705078125
1295.9718017578125 3739.26220703125
1296.3109130859375 3070.0224609375
1301.642578125 6179.3203125
1301.97265625 11587.076171875
1302.3135986328125 7236.5810546875
1302.641845703125 8876.44921875
1302.9813232421875 3529.201171875
1305.9730224609375 2997.529052734375
1308.3043212890625 2992.075927734375
1308.6195068359375 6089.19189453125
1309.651611328125 5593.0380859375
1310.3084716796875 3904.26953125
1310.681884765625 2434.4423828125
1319.67333984375 2198.3173828125
1320.6754150390625 17619.236328125
1321.677490234375 11382.498046875
1322.6776123046875 4391.4189453125
1323.6683349609375 3167.3486328125
1324.6639404296875 1946.1552734375
1325.6689453125 2153.064697265625
1326.647705078125 3928.63818359375
1327.639892578125 2183.62451171875
1329.66845703125 5746.09375
1329.997802734375 8780.3603515625
1330.328857421875 9025.0546875
1330.6600341796875 5103.97900390625
1330.989501953125 3587.9345703125
1332.1373291015625 3033.050537109375
1333.6822509765625 4183.7001953125
1335.67138671875 20411.45703125
1335.99951171875 58158.6171875
1336.330810546875 92151.3203125
1336.6639404296875 86662.3046875
1336.9951171875 55611.625
1337.329345703125 28299.494140625
1337.6644287109375 12645.4482421875
1338.0030517578125 4772.5068359375
1341.6619873046875 6793.6806640625
1342.663330078125 5636.478515625
1343.6688232421875 6856.205078125
1347.177001953125 2291.833984375
1348.6650390625 5745.17822265625
1349.000244140625 4719.2412109375
1349.3406982421875 7928.7158203125
1349.677978515625 6364.75
1350.0177001953125 2429.768310546875
1350.3302001953125 3974.443359375
1351.6534423828125 2324.296875
1354.6942138671875 8361.568359375
1355.0096435546875 21299.677734375
1355.337158203125 20182.779296875
1355.6656494140625 18477.80859375
1355.9991455078125 13646.1513671875
1356.346435546875 6924.8037109375
1356.6619873046875 3903.92822265625
1358.6646728515625 2096.819091796875
1360.6693115234375 2202.215576171875
1361.171875 3490.138916015625
1361.6871337890625 1926.35205078125
1362.7042236328125 2639.168212890625
1363.7197265625 2916.606689453125
1364.1602783203125 5371.22314453125
1367.6826171875 11080.7568359375
1368.015869140625 15187.126953125
1368.3455810546875 14659.328125
1368.6756591796875 5703.79150390625
1369.018310546875 6756.2119140625
1369.35107421875 4327.73291015625
1369.670654296875 3178.667724609375
1369.9932861328125 3582.814697265625
1373.6868896484375 2266.31494140625
1374.1778564453125 2826.8984375
1375.3509521484375 2570.86669921875
1375.711181640625 6653.505859375
1376.3516845703125 2384.01416015625
1376.706298828125 4892.9365234375
1377.692138671875 2264.368896484375
1380.158935546875 2429.425048828125
1380.717041015625 4999.34521484375
1381.3480224609375 7901.83349609375
1381.6865234375 15155.748046875
1382.0169677734375 13972.669921875
1382.346923828125 8599.138671875
1382.6591796875 7890.22705078125
1383.6680908203125 5219.427734375
1384.66796875 2894.2041015625
1385.6630859375 2534.783447265625
1394.697509765625 2509.131591796875
1400.6915283203125 3883.121337890625
1403.3548583984375 3569.181884765625
1403.69873046875 7383.91064453125
1404.011962890625 3693.01220703125
1404.71044921875 7590.6123046875
1405.031982421875 3328.154052734375
1405.7001953125 4984.03173828125
1406.0367431640625 4302.84716796875
1406.3720703125 3273.906494140625
1406.7021484375 2535.73486328125
1407.6995849609375 2633.56982421875
1408.7076416015625 3344.71728515625
1409.0382080078125 9876.107421875
1409.363037109375 29029.748046875
1409.6929931640625 50483.14453125
1410.0244140625 42932.41796875
1410.3548583984375 29790.966796875
1410.6888427734375 13407.0654296875
1411.02294921875 5891.77294921875
1412.707275390625 7741.376953125
1413.70166015625 6877.00146484375
1418.033935546875 4092.482666015625
1418.7115478515625 2844.5087890625
1421.723388671875 20767.10546875
1422.72802734375 19561.92578125
1423.724365234375 12007.521484375
1424.0330810546875 12292.013671875
1424.3736572265625 10837.314453125
1424.7020263671875 20770.1015625
1425.0299072265625 9034.5556640625
1425.3712158203125 4060.5234375
1425.6962890625 9715.1650390625
1426.2166748046875 2619.47509765625
1426.6956787109375 2896.73291015625
1441.377685546875 3981.57958984375
1441.716064453125 5117.43212890625
1442.0509033203125 2677.693115234375
1442.703125 2981.5419921875
1446.74365234375 9281.439453125
1447.056396484375 24627.15625
1447.3857421875 33252.28515625
1447.7215576171875 37779.8359375
1448.0482177734375 21834.11328125
1448.3826904296875 13849.1064453125
1448.7301025390625 6117.263671875
1449.0413818359375 3085.55078125
1458.3697509765625 5393.8291015625
1460.732177734375 2925.80029296875
1478.7337646484375 3036.025390625
1479.7249755859375 2382.53076171875
1483.7464599609375 2850.484375
1489.7489013671875 4468.89208984375
1490.2412109375 4067.22314453125
1490.73291015625 4196.46044921875
1492.7584228515625 4469.009765625
1493.765380859375 4643.60302734375
1495.7568359375 6667.1328125
1496.7620849609375 7928.453125
1497.753173828125 4462.333984375
1498.7467041015625 3050.535400390625
1527.7374267578125 4904.966796875
1528.7315673828125 5661.11865234375
1531.7706298828125 3321.89404296875
1532.7718505859375 2985.39501953125
1546.7696533203125 4928.658203125
1547.7730712890625 3059.660888671875
1549.778076171875 20223.0546875
1550.782470703125 18303.3828125
1551.78564453125 8606.3388671875
1552.7835693359375 5785.2822265625
1553.78857421875 3725.6162109375
1557.7718505859375 5057.58642578125
1558.7860107421875 3348.06884765625
1564.7657470703125 8731.791015625
1565.76611328125 13432.056640625
1566.775146484375 5044.92138671875
1567.7725830078125 3783.28662109375
1568.7855224609375 3140.387451171875
1582.779296875 2547.322021484375
1593.769775390625 2473.64697265625
1596.7335205078125 10193.0771484375
1597.7550048828125 9542.2265625
1598.75146484375 4806.8310546875
1613.8587646484375 5389.23388671875
1614.8546142578125 3504.18603515625
1615.83984375 2462.82666015625
1633.799560546875 4986.49755859375
1634.3006591796875 4478.52734375
1645.8310546875 4071.44921875
1646.8265380859375 8575.5029296875
1647.317138671875 6552.669921875
1647.825439453125 4740.9287109375
1648.81982421875 2602.737060546875
1651.8494873046875 4565.74609375
1652.855712890625 3550.412109375
1654.825927734375 2275.41455078125
1664.8226318359375 2875.643310546875
1683.823486328125 6663.2255859375
1684.8177490234375 6300.47802734375
1685.823974609375 4069.25927734375
1698.819580078125 2850.906494140625
1721.977783203125 4252.921875
1732.8646240234375 4352.09765625
1762.8902587890625 6746.83349609375
1767.8641357421875 2649.872314453125
1780.884521484375 3156.080078125
1781.88623046875 4199.166015625
1803.8984375 4929.71484375
1804.8973388671875 3040.0966796875
1805.8978271484375 2770.1669921875
1807.891845703125 3018.4052734375
1809.379638671875 3195.5693359375
1812.85791015625 4650.15234375
1813.8729248046875 4722.89599609375
1814.8685302734375 3978.0263671875
1817.3819580078125 2373.662353515625
1817.89501953125 3331.1220703125
1818.3671875 2825.479248046875
1835.88134765625 3255.9208984375
1836.87548828125 2940.9384765625
1881.924072265625 3610.224365234375
1931.9593505859375 3189.43896484375
1932.947021484375 5984.5888671875
1933.95654296875 4879.8232421875
1951.956298828125 3090.643310546875
1963.934326171875 3044.7802734375
1964.9354248046875 4187.69384765625
1965.9283447265625 3213.724853515625
END IONS